Created as New Dataset,Sample 006 By Administrator Date Friday, May 30 2025
cm-1,A
4000.00,0.0075
3999.00,0.0075
3998.00,0.0075
3997.00,0.0075
3996.00,0.0075
3995.00,0.0076
3994.00,0.0076
3993.00,0.0076
3992.00,0.0076
3991.00,0.0076
3990.00,0.0076
3989.00,0.0076
3988.00,0.0076
3987.00,0.0076
3986.00,0.0076
3985.00,0.0077
3984.00,0.0077
3983.00,0.0077
3982.00,0.0077
3981.00,0.0076
3980.00,0.0077
3979.00,0.0077
3978.00,0.0077
3977.00,0.0077
3976.00,0.0077
3975.00,0.0077
3974.00,0.0077
3973.00,0.0077
3972.00,0.0077
3971.00,0.0076
3970.00,0.0076
3969.00,0.0076
3968.00,0.0076
3967.00,0.0077
3966.00,0.0077
3965.00,0.0077
3964.00,0.0077
3963.00,0.0077
3962.00,0.0077
3961.00,0.0077
3960.00,0.0077
3959.00,0.0077
3958.00,0.0077
3957.00,0.0078
3956.00,0.0078
3955.00,0.0078
3954.00,0.0078
3953.00,0.0078
3952.00,0.0078
3951.00,0.0078
3950.00,0.0077
3949.00,0.0077
3948.00,0.0077
3947.00,0.0077
3946.00,0.0077
3945.00,0.0078
3944.00,0.0078
3943.00,0.0078
3942.00,0.0077
3941.00,0.0077
3940.00,0.0077
3939.00,0.0077
3938.00,0.0077
3937.00,0.0077
3936.00,0.0078
3935.00,0.0078
3934.00,0.0078
3933.00,0.0078
3932.00,0.0078
3931.00,0.0078
3930.00,0.0078
3929.00,0.0078
3928.00,0.0078
3927.00,0.0078
3926.00,0.0078
3925.00,0.0078
3924.00,0.0077
3923.00,0.0077
3922.00,0.0077
3921.00,0.0077
3920.00,0.0077
3919.00,0.0078
3918.00,0.0078
3917.00,0.0078
3916.00,0.0077
3915.00,0.0077
3914.00,0.0077
3913.00,0.0077
3912.00,0.0077
3911.00,0.0077
3910.00,0.0077
3909.00,0.0077
3908.00,0.0077
3907.00,0.0078
3906.00,0.0078
3905.00,0.0079
3904.00,0.0079
3903.00,0.0080
3902.00,0.0079
3901.00,0.0079
3900.00,0.0078
3899.00,0.0078
3898.00,0.0078
3897.00,0.0078
3896.00,0.0078
3895.00,0.0078
3894.00,0.0078
3893.00,0.0078
3892.00,0.0077
3891.00,0.0077
3890.00,0.0076
3889.00,0.0077
3888.00,0.0077
3887.00,0.0078
3886.00,0.0078
3885.00,0.0078
3884.00,0.0078
3883.00,0.0079
3882.00,0.0078
3881.00,0.0078
3880.00,0.0077
3879.00,0.0077
3878.00,0.0077
3877.00,0.0078
3876.00,0.0079
3875.00,0.0079
3874.00,0.0080
3873.00,0.0080
3872.00,0.0080
3871.00,0.0080
3870.00,0.0079
3869.00,0.0079
3868.00,0.0079
3867.00,0.0079
3866.00,0.0079
3865.00,0.0079
3864.00,0.0079
3863.00,0.0079
3862.00,0.0079
3861.00,0.0080
3860.00,0.0080
3859.00,0.0080
3858.00,0.0080
3857.00,0.0080
3856.00,0.0080
3855.00,0.0080
3854.00,0.0080
3853.00,0.0080
3852.00,0.0079
3851.00,0.0079
3850.00,0.0079
3849.00,0.0079
3848.00,0.0079
3847.00,0.0079
3846.00,0.0079
3845.00,0.0079
3844.00,0.0080
3843.00,0.0080
3842.00,0.0079
3841.00,0.0079
3840.00,0.0079
3839.00,0.0079
3838.00,0.0080
3837.00,0.0080
3836.00,0.0081
3835.00,0.0081
3834.00,0.0081
3833.00,0.0080
3832.00,0.0080
3831.00,0.0080
3830.00,0.0080
3829.00,0.0080
3828.00,0.0080
3827.00,0.0079
3826.00,0.0079
3825.00,0.0080
3824.00,0.0081
3823.00,0.0081
3822.00,0.0082
3821.00,0.0081
3820.00,0.0081
3819.00,0.0082
3818.00,0.0082
3817.00,0.0082
3816.00,0.0082
3815.00,0.0081
3814.00,0.0081
3813.00,0.0082
3812.00,0.0082
3811.00,0.0082
3810.00,0.0082
3809.00,0.0082
3808.00,0.0082
3807.00,0.0082
3806.00,0.0082
3805.00,0.0082
3804.00,0.0083
3803.00,0.0083
3802.00,0.0084
3801.00,0.0083
3800.00,0.0083
3799.00,0.0083
3798.00,0.0083
3797.00,0.0082
3796.00,0.0082
3795.00,0.0082
3794.00,0.0082
3793.00,0.0082
3792.00,0.0082
3791.00,0.0082
3790.00,0.0082
3789.00,0.0082
3788.00,0.0083
3787.00,0.0084
3786.00,0.0084
3785.00,0.0084
3784.00,0.0084
3783.00,0.0084
3782.00,0.0085
3781.00,0.0085
3780.00,0.0085
3779.00,0.0084
3778.00,0.0084
3777.00,0.0084
3776.00,0.0085
3775.00,0.0085
3774.00,0.0086
3773.00,0.0086
3772.00,0.0087
3771.00,0.0087
3770.00,0.0087
3769.00,0.0087
3768.00,0.0087
3767.00,0.0087
3766.00,0.0087
3765.00,0.0087
3764.00,0.0088
3763.00,0.0089
3762.00,0.0089
3761.00,0.0090
3760.00,0.0090
3759.00,0.0090
3758.00,0.0090
3757.00,0.0090
3756.00,0.0090
3755.00,0.0091
3754.00,0.0091
3753.00,0.0092
3752.00,0.0092
3751.00,0.0093
3750.00,0.0093
3749.00,0.0093
3748.00,0.0093
3747.00,0.0093
3746.00,0.0092
3745.00,0.0092
3744.00,0.0092
3743.00,0.0092
3742.00,0.0093
3741.00,0.0094
3740.00,0.0093
3739.00,0.0093
3738.00,0.0093
3737.00,0.0094
3736.00,0.0094
3735.00,0.0094
3734.00,0.0094
3733.00,0.0094
3732.00,0.0095
3731.00,0.0095
3730.00,0.0096
3729.00,0.0096
3728.00,0.0097
3727.00,0.0097
3726.00,0.0097
3725.00,0.0098
3724.00,0.0098
3723.00,0.0099
3722.00,0.0100
3721.00,0.0101
3720.00,0.0102
3719.00,0.0103
3718.00,0.0104
3717.00,0.0105
3716.00,0.0106
3715.00,0.0107
3714.00,0.0108
3713.00,0.0110
3712.00,0.0111
3711.00,0.0112
3710.00,0.0113
3709.00,0.0113
3708.00,0.0113
3707.00,0.0114
3706.00,0.0115
3705.00,0.0116
3704.00,0.0117
3703.00,0.0118
3702.00,0.0119
3701.00,0.0120
3700.00,0.0122
3699.00,0.0124
3698.00,0.0125
3697.00,0.0127
3696.00,0.0129
3695.00,0.0130
3694.00,0.0132
3693.00,0.0134
3692.00,0.0135
3691.00,0.0137
3690.00,0.0139
3689.00,0.0141
3688.00,0.0143
3687.00,0.0146
3686.00,0.0148
3685.00,0.0151
3684.00,0.0153
3683.00,0.0155
3682.00,0.0158
3681.00,0.0160
3680.00,0.0162
3679.00,0.0164
3678.00,0.0167
3677.00,0.0169
3676.00,0.0173
3675.00,0.0176
3674.00,0.0180
3673.00,0.0184
3672.00,0.0188
3671.00,0.0192
3670.00,0.0196
3669.00,0.0200
3668.00,0.0205
3667.00,0.0209
3666.00,0.0212
3665.00,0.0216
3664.00,0.0220
3663.00,0.0225
3662.00,0.0230
3661.00,0.0235
3660.00,0.0240
3659.00,0.0245
3658.00,0.0251
3657.00,0.0256
3656.00,0.0262
3655.00,0.0268
3654.00,0.0273
3653.00,0.0278
3652.00,0.0283
3651.00,0.0290
3650.00,0.0298
3649.00,0.0307
3648.00,0.0315
3647.00,0.0323
3646.00,0.0329
3645.00,0.0334
3644.00,0.0340
3643.00,0.0346
3642.00,0.0352
3641.00,0.0358
3640.00,0.0365
3639.00,0.0372
3638.00,0.0379
3637.00,0.0386
3636.00,0.0393
3635.00,0.0400
3634.00,0.0407
3633.00,0.0413
3632.00,0.0420
3631.00,0.0427
3630.00,0.0436
3629.00,0.0446
3628.00,0.0457
3627.00,0.0466
3626.00,0.0473
3625.00,0.0480
3624.00,0.0486
3623.00,0.0492
3622.00,0.0498
3621.00,0.0506
3620.00,0.0514
3619.00,0.0523
3618.00,0.0531
3617.00,0.0539
3616.00,0.0547
3615.00,0.0554
3614.00,0.0562
3613.00,0.0569
3612.00,0.0577
3611.00,0.0585
3610.00,0.0593
3609.00,0.0602
3608.00,0.0611
3607.00,0.0619
3606.00,0.0627
3605.00,0.0634
3604.00,0.0640
3603.00,0.0646
3602.00,0.0653
3601.00,0.0661
3600.00,0.0669
3599.00,0.0677
3598.00,0.0685
3597.00,0.0693
3596.00,0.0700
3595.00,0.0708
3594.00,0.0716
3593.00,0.0723
3592.00,0.0730
3591.00,0.0735
3590.00,0.0742
3589.00,0.0749
3588.00,0.0758
3587.00,0.0768
3586.00,0.0777
3585.00,0.0785
3584.00,0.0792
3583.00,0.0798
3582.00,0.0804
3581.00,0.0811
3580.00,0.0817
3579.00,0.0824
3578.00,0.0832
3577.00,0.0839
3576.00,0.0847
3575.00,0.0853
3574.00,0.0860
3573.00,0.0867
3572.00,0.0873
3571.00,0.0878
3570.00,0.0884
3569.00,0.0891
3568.00,0.0899
3567.00,0.0909
3566.00,0.0919
3565.00,0.0927
3564.00,0.0935
3563.00,0.0942
3562.00,0.0949
3561.00,0.0955
3560.00,0.0961
3559.00,0.0967
3558.00,0.0973
3557.00,0.0980
3556.00,0.0986
3555.00,0.0992
3554.00,0.0999
3553.00,0.1007
3552.00,0.1014
3551.00,0.1022
3550.00,0.1029
3549.00,0.1035
3548.00,0.1042
3547.00,0.1049
3546.00,0.1056
3545.00,0.1063
3544.00,0.1071
3543.00,0.1077
3542.00,0.1083
3541.00,0.1090
3540.00,0.1096
3539.00,0.1102
3538.00,0.1109
3537.00,0.1115
3536.00,0.1122
3535.00,0.1127
3534.00,0.1134
3533.00,0.1140
3532.00,0.1146
3531.00,0.1153
3530.00,0.1160
3529.00,0.1167
3528.00,0.1174
3527.00,0.1181
3526.00,0.1189
3525.00,0.1196
3524.00,0.1203
3523.00,0.1210
3522.00,0.1217
3521.00,0.1223
3520.00,0.1230
3519.00,0.1236
3518.00,0.1242
3517.00,0.1249
3516.00,0.1255
3515.00,0.1261
3514.00,0.1267
3513.00,0.1274
3512.00,0.1280
3511.00,0.1286
3510.00,0.1293
3509.00,0.1299
3508.00,0.1306
3507.00,0.1312
3506.00,0.1318
3505.00,0.1325
3504.00,0.1332
3503.00,0.1339
3502.00,0.1347
3501.00,0.1354
3500.00,0.1360
3499.00,0.1366
3498.00,0.1372
3497.00,0.1378
3496.00,0.1385
3495.00,0.1391
3494.00,0.1397
3493.00,0.1403
3492.00,0.1409
3491.00,0.1415
3490.00,0.1421
3489.00,0.1428
3488.00,0.1434
3487.00,0.1441
3486.00,0.1447
3485.00,0.1453
3484.00,0.1459
3483.00,0.1466
3482.00,0.1472
3481.00,0.1479
3480.00,0.1485
3479.00,0.1491
3478.00,0.1496
3477.00,0.1502
3476.00,0.1507
3475.00,0.1512
3474.00,0.1518
3473.00,0.1524
3472.00,0.1530
3471.00,0.1537
3470.00,0.1544
3469.00,0.1551
3468.00,0.1557
3467.00,0.1562
3466.00,0.1567
3465.00,0.1572
3464.00,0.1577
3463.00,0.1583
3462.00,0.1589
3461.00,0.1595
3460.00,0.1601
3459.00,0.1606
3458.00,0.1611
3457.00,0.1615
3456.00,0.1620
3455.00,0.1625
3454.00,0.1630
3453.00,0.1635
3452.00,0.1640
3451.00,0.1646
3450.00,0.1651
3449.00,0.1656
3448.00,0.1660
3447.00,0.1665
3446.00,0.1670
3445.00,0.1675
3444.00,0.1680
3443.00,0.1686
3442.00,0.1691
3441.00,0.1696
3440.00,0.1701
3439.00,0.1706
3438.00,0.1711
3437.00,0.1715
3436.00,0.1720
3435.00,0.1724
3434.00,0.1728
3433.00,0.1733
3432.00,0.1737
3431.00,0.1741
3430.00,0.1745
3429.00,0.1748
3428.00,0.1751
3427.00,0.1754
3426.00,0.1757
3425.00,0.1760
3424.00,0.1763
3423.00,0.1766
3422.00,0.1770
3421.00,0.1773
3420.00,0.1776
3419.00,0.1780
3418.00,0.1783
3417.00,0.1786
3416.00,0.1790
3415.00,0.1793
3414.00,0.1796
3413.00,0.1798
3412.00,0.1801
3411.00,0.1803
3410.00,0.1805
3409.00,0.1807
3408.00,0.1809
3407.00,0.1811
3406.00,0.1813
3405.00,0.1816
3404.00,0.1818
3403.00,0.1820
3402.00,0.1822
3401.00,0.1823
3400.00,0.1824
3399.00,0.1825
3398.00,0.1826
3397.00,0.1827
3396.00,0.1828
3395.00,0.1829
3394.00,0.1830
3393.00,0.1830
3392.00,0.1831
3391.00,0.1830
3390.00,0.1830
3389.00,0.1829
3388.00,0.1829
3387.00,0.1828
3386.00,0.1828
3385.00,0.1827
3384.00,0.1827
3383.00,0.1827
3382.00,0.1826
3381.00,0.1826
3380.00,0.1825
3379.00,0.1824
3378.00,0.1822
3377.00,0.1821
3376.00,0.1820
3375.00,0.1819
3374.00,0.1817
3373.00,0.1816
3372.00,0.1815
3371.00,0.1814
3370.00,0.1812
3369.00,0.1810
3368.00,0.1808
3367.00,0.1805
3366.00,0.1802
3365.00,0.1799
3364.00,0.1796
3363.00,0.1793
3362.00,0.1790
3361.00,0.1787
3360.00,0.1784
3359.00,0.1780
3358.00,0.1777
3357.00,0.1774
3356.00,0.1771
3355.00,0.1768
3354.00,0.1764
3353.00,0.1761
3352.00,0.1758
3351.00,0.1755
3350.00,0.1751
3349.00,0.1747
3348.00,0.1743
3347.00,0.1739
3346.00,0.1735
3345.00,0.1731
3344.00,0.1727
3343.00,0.1723
3342.00,0.1720
3341.00,0.1716
3340.00,0.1711
3339.00,0.1707
3338.00,0.1702
3337.00,0.1698
3336.00,0.1693
3335.00,0.1688
3334.00,0.1684
3333.00,0.1679
3332.00,0.1674
3331.00,0.1669
3330.00,0.1665
3329.00,0.1660
3328.00,0.1656
3327.00,0.1652
3326.00,0.1647
3325.00,0.1642
3324.00,0.1637
3323.00,0.1632
3322.00,0.1627
3321.00,0.1622
3320.00,0.1617
3319.00,0.1613
3318.00,0.1608
3317.00,0.1603
3316.00,0.1598
3315.00,0.1593
3314.00,0.1589
3313.00,0.1585
3312.00,0.1580
3311.00,0.1576
3310.00,0.1572
3309.00,0.1568
3308.00,0.1564
3307.00,0.1559
3306.00,0.1555
3305.00,0.1550
3304.00,0.1546
3303.00,0.1541
3302.00,0.1537
3301.00,0.1532
3300.00,0.1528
3299.00,0.1524
3298.00,0.1520
3297.00,0.1516
3296.00,0.1512
3295.00,0.1508
3294.00,0.1504
3293.00,0.1500
3292.00,0.1496
3291.00,0.1491
3290.00,0.1487
3289.00,0.1483
3288.00,0.1479
3287.00,0.1474
3286.00,0.1470
3285.00,0.1466
3284.00,0.1462
3283.00,0.1457
3282.00,0.1453
3281.00,0.1449
3280.00,0.1445
3279.00,0.1441
3278.00,0.1437
3277.00,0.1433
3276.00,0.1429
3275.00,0.1425
3274.00,0.1421
3273.00,0.1417
3272.00,0.1413
3271.00,0.1408
3270.00,0.1404
3269.00,0.1400
3268.00,0.1395
3267.00,0.1391
3266.00,0.1387
3265.00,0.1382
3264.00,0.1378
3263.00,0.1374
3262.00,0.1369
3261.00,0.1365
3260.00,0.1361
3259.00,0.1356
3258.00,0.1352
3257.00,0.1347
3256.00,0.1343
3255.00,0.1338
3254.00,0.1333
3253.00,0.1328
3252.00,0.1323
3251.00,0.1319
3250.00,0.1314
3249.00,0.1309
3248.00,0.1304
3247.00,0.1299
3246.00,0.1294
3245.00,0.1289
3244.00,0.1284
3243.00,0.1279
3242.00,0.1273
3241.00,0.1268
3240.00,0.1262
3239.00,0.1257
3238.00,0.1251
3237.00,0.1246
3236.00,0.1241
3235.00,0.1235
3234.00,0.1229
3233.00,0.1223
3232.00,0.1218
3231.00,0.1211
3230.00,0.1205
3229.00,0.1199
3228.00,0.1192
3227.00,0.1186
3226.00,0.1180
3225.00,0.1174
3224.00,0.1168
3223.00,0.1162
3222.00,0.1156
3221.00,0.1150
3220.00,0.1144
3219.00,0.1138
3218.00,0.1131
3217.00,0.1124
3216.00,0.1118
3215.00,0.1111
3214.00,0.1105
3213.00,0.1098
3212.00,0.1092
3211.00,0.1086
3210.00,0.1079
3209.00,0.1072
3208.00,0.1065
3207.00,0.1057
3206.00,0.1050
3205.00,0.1043
3204.00,0.1036
3203.00,0.1029
3202.00,0.1022
3201.00,0.1016
3200.00,0.1009
3199.00,0.1003
3198.00,0.0996
3197.00,0.0989
3196.00,0.0982
3195.00,0.0975
3194.00,0.0968
3193.00,0.0961
3192.00,0.0954
3191.00,0.0947
3190.00,0.0940
3189.00,0.0933
3188.00,0.0926
3187.00,0.0919
3186.00,0.0912
3185.00,0.0905
3184.00,0.0898
3183.00,0.0891
3182.00,0.0885
3181.00,0.0878
3180.00,0.0871
3179.00,0.0865
3178.00,0.0859
3177.00,0.0852
3176.00,0.0846
3175.00,0.0840
3174.00,0.0833
3173.00,0.0827
3172.00,0.0821
3171.00,0.0814
3170.00,0.0807
3169.00,0.0800
3168.00,0.0793
3167.00,0.0787
3166.00,0.0780
3165.00,0.0774
3164.00,0.0768
3163.00,0.0762
3162.00,0.0756
3161.00,0.0750
3160.00,0.0744
3159.00,0.0738
3158.00,0.0732
3157.00,0.0727
3156.00,0.0721
3155.00,0.0715
3154.00,0.0709
3153.00,0.0703
3152.00,0.0698
3151.00,0.0692
3150.00,0.0686
3149.00,0.0680
3148.00,0.0675
3147.00,0.0669
3146.00,0.0664
3145.00,0.0659
3144.00,0.0653
3143.00,0.0647
3142.00,0.0642
3141.00,0.0636
3140.00,0.0631
3139.00,0.0626
3138.00,0.0621
3137.00,0.0616
3136.00,0.0611
3135.00,0.0606
3134.00,0.0601
3133.00,0.0595
3132.00,0.0590
3131.00,0.0585
3130.00,0.0581
3129.00,0.0576
3128.00,0.0572
3127.00,0.0567
3126.00,0.0563
3125.00,0.0558
3124.00,0.0554
3123.00,0.0550
3122.00,0.0545
3121.00,0.0541
3120.00,0.0536
3119.00,0.0531
3118.00,0.0527
3117.00,0.0523
3116.00,0.0518
3115.00,0.0514
3114.00,0.0510
3113.00,0.0506
3112.00,0.0502
3111.00,0.0498
3110.00,0.0494
3109.00,0.0491
3108.00,0.0488
3107.00,0.0484
3106.00,0.0480
3105.00,0.0476
3104.00,0.0472
3103.00,0.0468
3102.00,0.0464
3101.00,0.0460
3100.00,0.0457
3099.00,0.0453
3098.00,0.0449
3097.00,0.0445
3096.00,0.0442
3095.00,0.0439
3094.00,0.0436
3093.00,0.0433
3092.00,0.0429
3091.00,0.0426
3090.00,0.0422
3089.00,0.0419
3088.00,0.0416
3087.00,0.0413
3086.00,0.0410
3085.00,0.0407
3084.00,0.0404
3083.00,0.0401
3082.00,0.0398
3081.00,0.0395
3080.00,0.0392
3079.00,0.0389
3078.00,0.0386
3077.00,0.0383
3076.00,0.0380
3075.00,0.0377
3074.00,0.0374
3073.00,0.0371
3072.00,0.0369
3071.00,0.0366
3070.00,0.0364
3069.00,0.0361
3068.00,0.0358
3067.00,0.0356
3066.00,0.0353
3065.00,0.0351
3064.00,0.0348
3063.00,0.0345
3062.00,0.0343
3061.00,0.0341
3060.00,0.0338
3059.00,0.0336
3058.00,0.0333
3057.00,0.0330
3056.00,0.0328
3055.00,0.0326
3054.00,0.0324
3053.00,0.0321
3052.00,0.0319
3051.00,0.0317
3050.00,0.0315
3049.00,0.0313
3048.00,0.0311
3047.00,0.0309
3046.00,0.0306
3045.00,0.0304
3044.00,0.0302
3043.00,0.0300
3042.00,0.0298
3041.00,0.0296
3040.00,0.0295
3039.00,0.0293
3038.00,0.0291
3037.00,0.0289
3036.00,0.0288
3035.00,0.0286
3034.00,0.0284
3033.00,0.0283
3032.00,0.0281
3031.00,0.0279
3030.00,0.0278
3029.00,0.0276
3028.00,0.0275
3027.00,0.0274
3026.00,0.0272
3025.00,0.0271
3024.00,0.0269
3023.00,0.0267
3022.00,0.0266
3021.00,0.0264
3020.00,0.0263
3019.00,0.0261
3018.00,0.0260
3017.00,0.0259
3016.00,0.0258
3015.00,0.0257
3014.00,0.0256
3013.00,0.0256
3012.00,0.0255
3011.00,0.0254
3010.00,0.0253
3009.00,0.0252
3008.00,0.0251
3007.00,0.0250
3006.00,0.0249
3005.00,0.0248
3004.00,0.0247
3003.00,0.0246
3002.00,0.0246
3001.00,0.0245
3000.00,0.0244
2999.00,0.0244
2998.00,0.0244
2997.00,0.0244
2996.00,0.0243
2995.00,0.0243
2994.00,0.0242
2993.00,0.0242
2992.00,0.0242
2991.00,0.0242
2990.00,0.0242
2989.00,0.0242
2988.00,0.0242
2987.00,0.0243
2986.00,0.0243
2985.00,0.0243
2984.00,0.0243
2983.00,0.0244
2982.00,0.0244
2981.00,0.0245
2980.00,0.0245
2979.00,0.0246
2978.00,0.0246
2977.00,0.0247
2976.00,0.0248
2975.00,0.0248
2974.00,0.0249
2973.00,0.0250
2972.00,0.0251
2971.00,0.0251
2970.00,0.0252
2969.00,0.0253
2968.00,0.0253
2967.00,0.0254
2966.00,0.0254
2965.00,0.0254
2964.00,0.0255
2963.00,0.0255
2962.00,0.0256
2961.00,0.0256
2960.00,0.0257
2959.00,0.0258
2958.00,0.0259
2957.00,0.0259
2956.00,0.0259
2955.00,0.0259
2954.00,0.0259
2953.00,0.0259
2952.00,0.0259
2951.00,0.0258
2950.00,0.0257
2949.00,0.0257
2948.00,0.0257
2947.00,0.0257
2946.00,0.0256
2945.00,0.0257
2944.00,0.0257
2943.00,0.0258
2942.00,0.0260
2941.00,0.0261
2940.00,0.0262
2939.00,0.0263
2938.00,0.0264
2937.00,0.0265
2936.00,0.0267
2935.00,0.0269
2934.00,0.0271
2933.00,0.0272
2932.00,0.0274
2931.00,0.0276
2930.00,0.0278
2929.00,0.0280
2928.00,0.0282
2927.00,0.0284
2926.00,0.0286
2925.00,0.0288
2924.00,0.0290
2923.00,0.0292
2922.00,0.0293
2921.00,0.0294
2920.00,0.0295
2919.00,0.0294
2918.00,0.0293
2917.00,0.0290
2916.00,0.0287
2915.00,0.0283
2914.00,0.0278
2913.00,0.0274
2912.00,0.0269
2911.00,0.0265
2910.00,0.0262
2909.00,0.0259
2908.00,0.0256
2907.00,0.0253
2906.00,0.0251
2905.00,0.0248
2904.00,0.0246
2903.00,0.0244
2902.00,0.0241
2901.00,0.0240
2900.00,0.0238
2899.00,0.0236
2898.00,0.0234
2897.00,0.0232
2896.00,0.0230
2895.00,0.0228
2894.00,0.0226
2893.00,0.0224
2892.00,0.0222
2891.00,0.0220
2890.00,0.0218
2889.00,0.0217
2888.00,0.0215
2887.00,0.0214
2886.00,0.0212
2885.00,0.0211
2884.00,0.0209
2883.00,0.0208
2882.00,0.0206
2881.00,0.0205
2880.00,0.0204
2879.00,0.0203
2878.00,0.0203
2877.00,0.0202
2876.00,0.0200
2875.00,0.0199
2874.00,0.0198
2873.00,0.0197
2872.00,0.0196
2871.00,0.0195
2870.00,0.0194
2869.00,0.0193
2868.00,0.0193
2867.00,0.0192
2866.00,0.0191
2865.00,0.0191
2864.00,0.0190
2863.00,0.0189
2862.00,0.0189
2861.00,0.0190
2860.00,0.0191
2859.00,0.0192
2858.00,0.0193
2857.00,0.0194
2856.00,0.0195
2855.00,0.0197
2854.00,0.0199
2853.00,0.0200
2852.00,0.0201
2851.00,0.0200
2850.00,0.0198
2849.00,0.0196
2848.00,0.0192
2847.00,0.0187
2846.00,0.0182
2845.00,0.0177
2844.00,0.0173
2843.00,0.0168
2842.00,0.0165
2841.00,0.0162
2840.00,0.0159
2839.00,0.0157
2838.00,0.0155
2837.00,0.0153
2836.00,0.0151
2835.00,0.0150
2834.00,0.0149
2833.00,0.0148
2832.00,0.0147
2831.00,0.0147
2830.00,0.0146
2829.00,0.0144
2828.00,0.0143
2827.00,0.0143
2826.00,0.0142
2825.00,0.0141
2824.00,0.0140
2823.00,0.0140
2822.00,0.0139
2821.00,0.0138
2820.00,0.0137
2819.00,0.0137
2818.00,0.0136
2817.00,0.0135
2816.00,0.0135
2815.00,0.0134
2814.00,0.0134
2813.00,0.0133
2812.00,0.0133
2811.00,0.0132
2810.00,0.0132
2809.00,0.0131
2808.00,0.0130
2807.00,0.0130
2806.00,0.0129
2805.00,0.0129
2804.00,0.0129
2803.00,0.0128
2802.00,0.0128
2801.00,0.0127
2800.00,0.0127
2799.00,0.0127
2798.00,0.0127
2797.00,0.0127
2796.00,0.0126
2795.00,0.0126
2794.00,0.0125
2793.00,0.0125
2792.00,0.0124
2791.00,0.0124
2790.00,0.0123
2789.00,0.0123
2788.00,0.0123
2787.00,0.0122
2786.00,0.0122
2785.00,0.0122
2784.00,0.0122
2783.00,0.0121
2782.00,0.0121
2781.00,0.0120
2780.00,0.0120
2779.00,0.0119
2778.00,0.0119
2777.00,0.0119
2776.00,0.0118
2775.00,0.0118
2774.00,0.0118
2773.00,0.0118
2772.00,0.0117
2771.00,0.0117
2770.00,0.0116
2769.00,0.0116
2768.00,0.0116
2767.00,0.0116
2766.00,0.0116
2765.00,0.0116
2764.00,0.0115
2763.00,0.0115
2762.00,0.0114
2761.00,0.0114
2760.00,0.0113
2759.00,0.0113
2758.00,0.0113
2757.00,0.0113
2756.00,0.0113
2755.00,0.0113
2754.00,0.0113
2753.00,0.0113
2752.00,0.0113
2751.00,0.0112
2750.00,0.0112
2749.00,0.0112
2748.00,0.0112
2747.00,0.0112
2746.00,0.0112
2745.00,0.0112
2744.00,0.0111
2743.00,0.0111
2742.00,0.0111
2741.00,0.0110
2740.00,0.0110
2739.00,0.0110
2738.00,0.0110
2737.00,0.0110
2736.00,0.0110
2735.00,0.0110
2734.00,0.0110
2733.00,0.0110
2732.00,0.0110
2731.00,0.0110
2730.00,0.0109
2729.00,0.0109
2728.00,0.0108
2727.00,0.0108
2726.00,0.0108
2725.00,0.0108
2724.00,0.0108
2723.00,0.0108
2722.00,0.0108
2721.00,0.0108
2720.00,0.0107
2719.00,0.0107
2718.00,0.0107
2717.00,0.0107
2716.00,0.0106
2715.00,0.0106
2714.00,0.0105
2713.00,0.0106
2712.00,0.0106
2711.00,0.0106
2710.00,0.0105
2709.00,0.0105
2708.00,0.0105
2707.00,0.0105
2706.00,0.0105
2705.00,0.0105
2704.00,0.0104
2703.00,0.0104
2702.00,0.0104
2701.00,0.0104
2700.00,0.0104
2699.00,0.0104
2698.00,0.0104
2697.00,0.0103
2696.00,0.0104
2695.00,0.0104
2694.00,0.0104
2693.00,0.0104
2692.00,0.0103
2691.00,0.0103
2690.00,0.0103
2689.00,0.0103
2688.00,0.0103
2687.00,0.0103
2686.00,0.0103
2685.00,0.0103
2684.00,0.0102
2683.00,0.0102
2682.00,0.0102
2681.00,0.0102
2680.00,0.0102
2679.00,0.0102
2678.00,0.0102
2677.00,0.0102
2676.00,0.0102
2675.00,0.0101
2674.00,0.0101
