Created as New Dataset,Sample 015 By Administrator Date Thursday, May 29 2025
cm-1,A
4000.00,0.0132
3999.00,0.0132
3998.00,0.0132
3997.00,0.0131
3996.00,0.0131
3995.00,0.0131
3994.00,0.0131
3993.00,0.0131
3992.00,0.0130
3991.00,0.0130
3990.00,0.0131
3989.00,0.0131
3988.00,0.0131
3987.00,0.0131
3986.00,0.0131
3985.00,0.0130
3984.00,0.0130
3983.00,0.0130
3982.00,0.0130
3981.00,0.0130
3980.00,0.0130
3979.00,0.0130
3978.00,0.0130
3977.00,0.0130
3976.00,0.0130
3975.00,0.0130
3974.00,0.0130
3973.00,0.0131
3972.00,0.0131
3971.00,0.0131
3970.00,0.0131
3969.00,0.0130
3968.00,0.0130
3967.00,0.0130
3966.00,0.0130
3965.00,0.0130
3964.00,0.0130
3963.00,0.0130
3962.00,0.0130
3961.00,0.0130
3960.00,0.0130
3959.00,0.0130
3958.00,0.0130
3957.00,0.0130
3956.00,0.0130
3955.00,0.0130
3954.00,0.0130
3953.00,0.0129
3952.00,0.0129
3951.00,0.0129
3950.00,0.0129
3949.00,0.0129
3948.00,0.0129
3947.00,0.0129
3946.00,0.0129
3945.00,0.0129
3944.00,0.0129
3943.00,0.0129
3942.00,0.0129
3941.00,0.0128
3940.00,0.0128
3939.00,0.0128
3938.00,0.0128
3937.00,0.0128
3936.00,0.0129
3935.00,0.0129
3934.00,0.0129
3933.00,0.0129
3932.00,0.0129
3931.00,0.0129
3930.00,0.0129
3929.00,0.0129
3928.00,0.0129
3927.00,0.0129
3926.00,0.0129
3925.00,0.0128
3924.00,0.0128
3923.00,0.0128
3922.00,0.0127
3921.00,0.0127
3920.00,0.0127
3919.00,0.0127
3918.00,0.0127
3917.00,0.0127
3916.00,0.0127
3915.00,0.0127
3914.00,0.0127
3913.00,0.0127
3912.00,0.0127
3911.00,0.0127
3910.00,0.0128
3909.00,0.0128
3908.00,0.0129
3907.00,0.0129
3906.00,0.0129
3905.00,0.0129
3904.00,0.0129
3903.00,0.0129
3902.00,0.0128
3901.00,0.0128
3900.00,0.0128
3899.00,0.0129
3898.00,0.0129
3897.00,0.0129
3896.00,0.0129
3895.00,0.0129
3894.00,0.0128
3893.00,0.0128
3892.00,0.0127
3891.00,0.0128
3890.00,0.0128
3889.00,0.0129
3888.00,0.0128
3887.00,0.0128
3886.00,0.0128
3885.00,0.0128
3884.00,0.0128
3883.00,0.0128
3882.00,0.0128
3881.00,0.0127
3880.00,0.0127
3879.00,0.0127
3878.00,0.0127
3877.00,0.0127
3876.00,0.0127
3875.00,0.0128
3874.00,0.0129
3873.00,0.0130
3872.00,0.0129
3871.00,0.0128
3870.00,0.0128
3869.00,0.0128
3868.00,0.0128
3867.00,0.0127
3866.00,0.0127
3865.00,0.0127
3864.00,0.0127
3863.00,0.0126
3862.00,0.0126
3861.00,0.0126
3860.00,0.0126
3859.00,0.0126
3858.00,0.0127
3857.00,0.0127
3856.00,0.0127
3855.00,0.0126
3854.00,0.0126
3853.00,0.0127
3852.00,0.0127
3851.00,0.0126
3850.00,0.0125
3849.00,0.0124
3848.00,0.0124
3847.00,0.0125
3846.00,0.0125
3845.00,0.0125
3844.00,0.0125
3843.00,0.0126
3842.00,0.0127
3841.00,0.0127
3840.00,0.0127
3839.00,0.0128
3838.00,0.0127
3837.00,0.0127
3836.00,0.0127
3835.00,0.0126
3834.00,0.0126
3833.00,0.0126
3832.00,0.0126
3831.00,0.0126
3830.00,0.0125
3829.00,0.0125
3828.00,0.0124
3827.00,0.0124
3826.00,0.0125
3825.00,0.0126
3824.00,0.0127
3823.00,0.0127
3822.00,0.0127
3821.00,0.0128
3820.00,0.0128
3819.00,0.0127
3818.00,0.0125
3817.00,0.0124
3816.00,0.0124
3815.00,0.0124
3814.00,0.0123
3813.00,0.0123
3812.00,0.0123
3811.00,0.0123
3810.00,0.0123
3809.00,0.0123
3808.00,0.0123
3807.00,0.0123
3806.00,0.0124
3805.00,0.0124
3804.00,0.0124
3803.00,0.0123
3802.00,0.0124
3801.00,0.0124
3800.00,0.0125
3799.00,0.0124
3798.00,0.0123
3797.00,0.0122
3796.00,0.0122
3795.00,0.0122
3794.00,0.0121
3793.00,0.0120
3792.00,0.0120
3791.00,0.0120
3790.00,0.0120
3789.00,0.0120
3788.00,0.0120
3787.00,0.0120
3786.00,0.0119
3785.00,0.0119
3784.00,0.0120
3783.00,0.0120
3782.00,0.0120
3781.00,0.0120
3780.00,0.0120
3779.00,0.0120
3778.00,0.0120
3777.00,0.0119
3776.00,0.0119
3775.00,0.0119
3774.00,0.0119
3773.00,0.0119
3772.00,0.0119
3771.00,0.0119
3770.00,0.0119
3769.00,0.0119
3768.00,0.0119
3767.00,0.0119
3766.00,0.0119
3765.00,0.0119
3764.00,0.0120
3763.00,0.0120
3762.00,0.0120
3761.00,0.0120
3760.00,0.0121
3759.00,0.0121
3758.00,0.0121
3757.00,0.0122
3756.00,0.0122
3755.00,0.0122
3754.00,0.0123
3753.00,0.0123
3752.00,0.0122
3751.00,0.0122
3750.00,0.0122
3749.00,0.0122
3748.00,0.0122
3747.00,0.0121
3746.00,0.0120
3745.00,0.0120
3744.00,0.0120
3743.00,0.0120
3742.00,0.0119
3741.00,0.0118
3740.00,0.0118
3739.00,0.0119
3738.00,0.0119
3737.00,0.0119
3736.00,0.0118
3735.00,0.0118
3734.00,0.0117
3733.00,0.0116
3732.00,0.0116
3731.00,0.0115
3730.00,0.0115
3729.00,0.0114
3728.00,0.0114
3727.00,0.0114
3726.00,0.0114
3725.00,0.0114
3724.00,0.0113
3723.00,0.0113
3722.00,0.0113
3721.00,0.0113
3720.00,0.0113
3719.00,0.0113
3718.00,0.0113
3717.00,0.0114
3716.00,0.0115
3715.00,0.0115
3714.00,0.0116
3713.00,0.0116
3712.00,0.0117
3711.00,0.0117
3710.00,0.0117
3709.00,0.0116
3708.00,0.0115
3707.00,0.0114
3706.00,0.0114
3705.00,0.0114
3704.00,0.0114
3703.00,0.0114
3702.00,0.0114
3701.00,0.0114
3700.00,0.0113
3699.00,0.0113
3698.00,0.0113
3697.00,0.0114
3696.00,0.0114
3695.00,0.0115
3694.00,0.0116
3693.00,0.0117
3692.00,0.0118
3691.00,0.0119
3690.00,0.0120
3689.00,0.0119
3688.00,0.0118
3687.00,0.0117
3686.00,0.0116
3685.00,0.0116
3684.00,0.0116
3683.00,0.0117
3682.00,0.0118
3681.00,0.0119
3680.00,0.0120
3679.00,0.0121
3678.00,0.0122
3677.00,0.0122
3676.00,0.0123
3675.00,0.0124
3674.00,0.0125
3673.00,0.0125
3672.00,0.0125
3671.00,0.0126
3670.00,0.0127
3669.00,0.0128
3668.00,0.0129
3667.00,0.0129
3666.00,0.0129
3665.00,0.0130
3664.00,0.0131
3663.00,0.0132
3662.00,0.0133
3661.00,0.0135
3660.00,0.0136
3659.00,0.0137
3658.00,0.0138
3657.00,0.0140
3656.00,0.0142
3655.00,0.0144
3654.00,0.0145
3653.00,0.0147
3652.00,0.0149
3651.00,0.0151
3650.00,0.0153
3649.00,0.0156
3648.00,0.0158
3647.00,0.0160
3646.00,0.0162
3645.00,0.0164
3644.00,0.0165
3643.00,0.0167
3642.00,0.0168
3641.00,0.0169
3640.00,0.0171
3639.00,0.0173
3638.00,0.0175
3637.00,0.0177
3636.00,0.0179
3635.00,0.0182
3634.00,0.0185
3633.00,0.0187
3632.00,0.0189
3631.00,0.0191
3630.00,0.0193
3629.00,0.0197
3628.00,0.0201
3627.00,0.0205
3626.00,0.0208
3625.00,0.0210
3624.00,0.0212
3623.00,0.0214
3622.00,0.0216
3621.00,0.0219
3620.00,0.0222
3619.00,0.0225
3618.00,0.0229
3617.00,0.0232
3616.00,0.0234
3615.00,0.0237
3614.00,0.0239
3613.00,0.0242
3612.00,0.0245
3611.00,0.0248
3610.00,0.0251
3609.00,0.0253
3608.00,0.0256
3607.00,0.0260
3606.00,0.0263
3605.00,0.0266
3604.00,0.0269
3603.00,0.0271
3602.00,0.0274
3601.00,0.0277
3600.00,0.0281
3599.00,0.0284
3598.00,0.0287
3597.00,0.0289
3596.00,0.0292
3595.00,0.0296
3594.00,0.0300
3593.00,0.0304
3592.00,0.0308
3591.00,0.0311
3590.00,0.0312
3589.00,0.0314
3588.00,0.0317
3587.00,0.0322
3586.00,0.0328
3585.00,0.0333
3584.00,0.0337
3583.00,0.0341
3582.00,0.0344
3581.00,0.0346
3580.00,0.0349
3579.00,0.0351
3578.00,0.0354
3577.00,0.0357
3576.00,0.0360
3575.00,0.0364
3574.00,0.0366
3573.00,0.0369
3572.00,0.0371
3571.00,0.0372
3570.00,0.0373
3569.00,0.0373
3568.00,0.0375
3567.00,0.0379
3566.00,0.0384
3565.00,0.0388
3564.00,0.0392
3563.00,0.0395
3562.00,0.0397
3561.00,0.0398
3560.00,0.0400
3559.00,0.0401
3558.00,0.0403
3557.00,0.0405
3556.00,0.0407
3555.00,0.0409
3554.00,0.0410
3553.00,0.0413
3552.00,0.0416
3551.00,0.0418
3550.00,0.0421
3549.00,0.0422
3548.00,0.0424
3547.00,0.0425
3546.00,0.0428
3545.00,0.0432
3544.00,0.0436
3543.00,0.0439
3542.00,0.0441
3541.00,0.0443
3540.00,0.0445
3539.00,0.0447
3538.00,0.0450
3537.00,0.0452
3536.00,0.0455
3535.00,0.0457
3534.00,0.0459
3533.00,0.0461
3532.00,0.0463
3531.00,0.0465
3530.00,0.0467
3529.00,0.0470
3528.00,0.0473
3527.00,0.0475
3526.00,0.0477
3525.00,0.0479
3524.00,0.0481
3523.00,0.0482
3522.00,0.0484
3521.00,0.0486
3520.00,0.0487
3519.00,0.0488
3518.00,0.0489
3517.00,0.0490
3516.00,0.0492
3515.00,0.0493
3514.00,0.0494
3513.00,0.0495
3512.00,0.0496
3511.00,0.0497
3510.00,0.0498
3509.00,0.0500
3508.00,0.0503
3507.00,0.0505
3506.00,0.0506
3505.00,0.0507
3504.00,0.0509
3503.00,0.0511
3502.00,0.0513
3501.00,0.0515
3500.00,0.0517
3499.00,0.0518
3498.00,0.0518
3497.00,0.0520
3496.00,0.0521
3495.00,0.0523
3494.00,0.0525
3493.00,0.0527
3492.00,0.0529
3491.00,0.0530
3490.00,0.0532
3489.00,0.0533
3488.00,0.0535
3487.00,0.0537
3486.00,0.0538
3485.00,0.0539
3484.00,0.0540
3483.00,0.0542
3482.00,0.0544
3481.00,0.0546
3480.00,0.0548
3479.00,0.0550
3478.00,0.0551
3477.00,0.0552
3476.00,0.0553
3475.00,0.0555
3474.00,0.0557
3473.00,0.0558
3472.00,0.0560
3471.00,0.0562
3470.00,0.0563
3469.00,0.0565
3468.00,0.0566
3467.00,0.0568
3466.00,0.0569
3465.00,0.0570
3464.00,0.0571
3463.00,0.0572
3462.00,0.0574
3461.00,0.0576
3460.00,0.0577
3459.00,0.0579
3458.00,0.0581
3457.00,0.0583
3456.00,0.0584
3455.00,0.0586
3454.00,0.0587
3453.00,0.0588
3452.00,0.0589
3451.00,0.0591
3450.00,0.0592
3449.00,0.0593
3448.00,0.0595
3447.00,0.0596
3446.00,0.0598
3445.00,0.0600
3444.00,0.0602
3443.00,0.0603
3442.00,0.0604
3441.00,0.0606
3440.00,0.0607
3439.00,0.0608
3438.00,0.0610
3437.00,0.0612
3436.00,0.0613
3435.00,0.0614
3434.00,0.0616
3433.00,0.0618
3432.00,0.0619
3431.00,0.0621
3430.00,0.0623
3429.00,0.0624
3428.00,0.0625
3427.00,0.0626
3426.00,0.0627
3425.00,0.0628
3424.00,0.0630
3423.00,0.0631
3422.00,0.0632
3421.00,0.0633
3420.00,0.0634
3419.00,0.0636
3418.00,0.0638
3417.00,0.0639
3416.00,0.0641
3415.00,0.0642
3414.00,0.0643
3413.00,0.0645
3412.00,0.0646
3411.00,0.0647
3410.00,0.0648
3409.00,0.0649
3408.00,0.0650
3407.00,0.0650
3406.00,0.0651
3405.00,0.0652
3404.00,0.0653
3403.00,0.0654
3402.00,0.0655
3401.00,0.0656
3400.00,0.0656
3399.00,0.0656
3398.00,0.0656
3397.00,0.0656
3396.00,0.0657
3395.00,0.0658
3394.00,0.0658
3393.00,0.0659
3392.00,0.0659
3391.00,0.0658
3390.00,0.0658
3389.00,0.0657
3388.00,0.0657
3387.00,0.0657
3386.00,0.0657
3385.00,0.0657
3384.00,0.0657
3383.00,0.0657
3382.00,0.0657
3381.00,0.0657
3380.00,0.0657
3379.00,0.0657
3378.00,0.0657
3377.00,0.0657
3376.00,0.0656
3375.00,0.0656
3374.00,0.0656
3373.00,0.0656
3372.00,0.0656
3371.00,0.0655
3370.00,0.0655
3369.00,0.0654
3368.00,0.0654
3367.00,0.0653
3366.00,0.0653
3365.00,0.0652
3364.00,0.0652
3363.00,0.0652
3362.00,0.0652
3361.00,0.0651
3360.00,0.0651
3359.00,0.0649
3358.00,0.0648
3357.00,0.0647
3356.00,0.0646
3355.00,0.0646
3354.00,0.0645
3353.00,0.0645
3352.00,0.0645
3351.00,0.0644
3350.00,0.0643
3349.00,0.0643
3348.00,0.0642
3347.00,0.0641
3346.00,0.0641
3345.00,0.0640
3344.00,0.0639
3343.00,0.0639
3342.00,0.0638
3341.00,0.0637
3340.00,0.0636
3339.00,0.0635
3338.00,0.0634
3337.00,0.0633
3336.00,0.0632
3335.00,0.0632
3334.00,0.0631
3333.00,0.0631
3332.00,0.0630
3331.00,0.0630
3330.00,0.0629
3329.00,0.0628
3328.00,0.0627
3327.00,0.0626
3326.00,0.0625
3325.00,0.0625
3324.00,0.0624
3323.00,0.0623
3322.00,0.0623
3321.00,0.0622
3320.00,0.0621
3319.00,0.0621
3318.00,0.0620
3317.00,0.0619
3316.00,0.0618
3315.00,0.0617
3314.00,0.0615
3313.00,0.0614
3312.00,0.0613
3311.00,0.0612
3310.00,0.0611
3309.00,0.0611
3308.00,0.0611
3307.00,0.0610
3306.00,0.0610
3305.00,0.0609
3304.00,0.0608
3303.00,0.0607
3302.00,0.0606
3301.00,0.0605
3300.00,0.0604
3299.00,0.0603
3298.00,0.0603
3297.00,0.0602
3296.00,0.0602
3295.00,0.0601
3294.00,0.0600
3293.00,0.0599
3292.00,0.0598
3291.00,0.0597
3290.00,0.0597
3289.00,0.0596
3288.00,0.0595
3287.00,0.0595
3286.00,0.0594
3285.00,0.0593
3284.00,0.0592
3283.00,0.0591
3282.00,0.0590
3281.00,0.0590
3280.00,0.0589
3279.00,0.0588
3278.00,0.0587
3277.00,0.0586
3276.00,0.0585
3275.00,0.0585
3274.00,0.0584
3273.00,0.0584
3272.00,0.0583
3271.00,0.0582
3270.00,0.0582
3269.00,0.0581
3268.00,0.0579
3267.00,0.0578
3266.00,0.0577
3265.00,0.0576
3264.00,0.0575
3263.00,0.0574
3262.00,0.0573
3261.00,0.0571
3260.00,0.0571
3259.00,0.0570
3258.00,0.0569
3257.00,0.0568
3256.00,0.0567
3255.00,0.0566
3254.00,0.0565
3253.00,0.0565
3252.00,0.0564
3251.00,0.0563
3250.00,0.0562
3249.00,0.0560
3248.00,0.0559
3247.00,0.0558
3246.00,0.0557
3245.00,0.0556
3244.00,0.0555
3243.00,0.0554
3242.00,0.0553
3241.00,0.0552
3240.00,0.0550
3239.00,0.0548
3238.00,0.0546
3237.00,0.0545
3236.00,0.0543
3235.00,0.0542
3234.00,0.0541
3233.00,0.0540
3232.00,0.0538
3231.00,0.0537
3230.00,0.0535
3229.00,0.0534
3228.00,0.0533
3227.00,0.0532
3226.00,0.0530
3225.00,0.0529
3224.00,0.0527
3223.00,0.0526
3222.00,0.0524
3221.00,0.0522
3220.00,0.0521
3219.00,0.0519
3218.00,0.0517
3217.00,0.0516
3216.00,0.0514
3215.00,0.0512
3214.00,0.0510
3213.00,0.0509
3212.00,0.0507
3211.00,0.0506
3210.00,0.0504
3209.00,0.0502
3208.00,0.0500
3207.00,0.0499
3206.00,0.0497
3205.00,0.0495
3204.00,0.0493
3203.00,0.0492
3202.00,0.0490
3201.00,0.0488
3200.00,0.0486
3199.00,0.0484
3198.00,0.0482
3197.00,0.0481
3196.00,0.0479
3195.00,0.0478
3194.00,0.0476
3193.00,0.0474
3192.00,0.0472
3191.00,0.0470
3190.00,0.0468
3189.00,0.0466
3188.00,0.0464
3187.00,0.0463
3186.00,0.0461
3185.00,0.0459
3184.00,0.0457
3183.00,0.0455
3182.00,0.0454
3181.00,0.0452
3180.00,0.0450
3179.00,0.0449
3178.00,0.0447
3177.00,0.0445
3176.00,0.0443
3175.00,0.0442
3174.00,0.0441
3173.00,0.0439
3172.00,0.0437
3171.00,0.0435
3170.00,0.0433
3169.00,0.0430
3168.00,0.0429
3167.00,0.0427
3166.00,0.0425
3165.00,0.0423
3164.00,0.0422
3163.00,0.0420
3162.00,0.0418
3161.00,0.0416
3160.00,0.0415
3159.00,0.0413
3158.00,0.0412
3157.00,0.0411
3156.00,0.0410
3155.00,0.0408
3154.00,0.0407
3153.00,0.0405
3152.00,0.0403
3151.00,0.0401
3150.00,0.0399
3149.00,0.0397
3148.00,0.0395
3147.00,0.0394
3146.00,0.0393
3145.00,0.0391
3144.00,0.0390
3143.00,0.0388
3142.00,0.0387
3141.00,0.0385
3140.00,0.0384
3139.00,0.0382
3138.00,0.0381
3137.00,0.0379
3136.00,0.0378
3135.00,0.0376
3134.00,0.0375
3133.00,0.0373
3132.00,0.0371
3131.00,0.0370
3130.00,0.0368
3129.00,0.0367
3128.00,0.0365
3127.00,0.0363
3126.00,0.0361
3125.00,0.0360
3124.00,0.0359
3123.00,0.0358
3122.00,0.0357
3121.00,0.0356
3120.00,0.0354
3119.00,0.0352
3118.00,0.0350
3117.00,0.0348
3116.00,0.0347
3115.00,0.0346
3114.00,0.0345
3113.00,0.0344
3112.00,0.0343
3111.00,0.0342
3110.00,0.0341
3109.00,0.0340
3108.00,0.0338
3107.00,0.0336
3106.00,0.0335
3105.00,0.0333
3104.00,0.0332
3103.00,0.0331
3102.00,0.0330
3101.00,0.0329
3100.00,0.0328
3099.00,0.0327
3098.00,0.0325
3097.00,0.0324
3096.00,0.0323
3095.00,0.0322
3094.00,0.0321
3093.00,0.0319
3092.00,0.0318
3091.00,0.0317
3090.00,0.0316
3089.00,0.0315
3088.00,0.0314
3087.00,0.0313
3086.00,0.0312
3085.00,0.0311
3084.00,0.0310
3083.00,0.0308
3082.00,0.0307
3081.00,0.0306
3080.00,0.0305
3079.00,0.0304
3078.00,0.0303
3077.00,0.0302
3076.00,0.0301
3075.00,0.0300
3074.00,0.0299
3073.00,0.0297
3072.00,0.0297
3071.00,0.0296
3070.00,0.0295
3069.00,0.0294
3068.00,0.0293
3067.00,0.0293
3066.00,0.0291
3065.00,0.0290
3064.00,0.0289
3063.00,0.0288
3062.00,0.0287
3061.00,0.0286
3060.00,0.0286
3059.00,0.0285
3058.00,0.0284
3057.00,0.0283
3056.00,0.0282
3055.00,0.0281
3054.00,0.0280
3053.00,0.0280
3052.00,0.0279
3051.00,0.0279
3050.00,0.0278
3049.00,0.0277
3048.00,0.0276
3047.00,0.0275
3046.00,0.0274
3045.00,0.0274
3044.00,0.0273
3043.00,0.0272
3042.00,0.0272
3041.00,0.0271
3040.00,0.0271
3039.00,0.0270
3038.00,0.0269
3037.00,0.0269
3036.00,0.0269
3035.00,0.0268
3034.00,0.0267
3033.00,0.0267
3032.00,0.0266
3031.00,0.0266
3030.00,0.0265
3029.00,0.0265
3028.00,0.0264
3027.00,0.0263
3026.00,0.0263
3025.00,0.0262
3024.00,0.0262
3023.00,0.0262
3022.00,0.0262
3021.00,0.0262
3020.00,0.0261
3019.00,0.0261
3018.00,0.0260
3017.00,0.0260
3016.00,0.0260
3015.00,0.0260
3014.00,0.0259
3013.00,0.0259
3012.00,0.0259
3011.00,0.0259
3010.00,0.0259
3009.00,0.0259
3008.00,0.0259
3007.00,0.0259
3006.00,0.0259
3005.00,0.0259
3004.00,0.0259
3003.00,0.0259
3002.00,0.0259
3001.00,0.0259
3000.00,0.0259
2999.00,0.0260
2998.00,0.0260
2997.00,0.0261
2996.00,0.0261
2995.00,0.0262
2994.00,0.0262
2993.00,0.0262
2992.00,0.0263
2991.00,0.0264
2990.00,0.0264
2989.00,0.0265
2988.00,0.0265
2987.00,0.0266
2986.00,0.0267
2985.00,0.0268
2984.00,0.0268
2983.00,0.0269
2982.00,0.0270
2981.00,0.0271
2980.00,0.0272
2979.00,0.0273
2978.00,0.0273
2977.00,0.0274
2976.00,0.0275
2975.00,0.0275
2974.00,0.0276
2973.00,0.0277
2972.00,0.0278
2971.00,0.0279
2970.00,0.0280
2969.00,0.0281
2968.00,0.0282
2967.00,0.0283
2966.00,0.0284
2965.00,0.0285
2964.00,0.0285
2963.00,0.0285
2962.00,0.0285
2961.00,0.0285
2960.00,0.0285
2959.00,0.0285
2958.00,0.0286
2957.00,0.0286
2956.00,0.0287
2955.00,0.0287
2954.00,0.0286
2953.00,0.0286
2952.00,0.0286
2951.00,0.0286
2950.00,0.0286
2949.00,0.0286
2948.00,0.0286
2947.00,0.0286
2946.00,0.0286
2945.00,0.0286
2944.00,0.0285
2943.00,0.0285
2942.00,0.0285
2941.00,0.0284
2940.00,0.0283
2939.00,0.0283
2938.00,0.0283
2937.00,0.0282
2936.00,0.0282
2935.00,0.0281
2934.00,0.0281
2933.00,0.0281
2932.00,0.0281
2931.00,0.0281
2930.00,0.0281
2929.00,0.0281
2928.00,0.0281
2927.00,0.0281
2926.00,0.0282
2925.00,0.0282
2924.00,0.0283
2923.00,0.0283
2922.00,0.0283
2921.00,0.0283
2920.00,0.0284
2919.00,0.0285
2918.00,0.0286
2917.00,0.0286
2916.00,0.0287
2915.00,0.0288
2914.00,0.0288
2913.00,0.0289
2912.00,0.0290
2911.00,0.0291
2910.00,0.0291
2909.00,0.0291
2908.00,0.0292
2907.00,0.0292
2906.00,0.0293
2905.00,0.0293
2904.00,0.0294
2903.00,0.0294
2902.00,0.0293
2901.00,0.0293
2900.00,0.0293
2899.00,0.0292
2898.00,0.0292
2897.00,0.0291
2896.00,0.0290
2895.00,0.0290
2894.00,0.0289
2893.00,0.0288
2892.00,0.0287
2891.00,0.0286
2890.00,0.0285
2889.00,0.0284
2888.00,0.0282
2887.00,0.0281
2886.00,0.0280
2885.00,0.0278
2884.00,0.0277
2883.00,0.0276
2882.00,0.0274
2881.00,0.0274
2880.00,0.0273
2879.00,0.0272
2878.00,0.0271
2877.00,0.0270
2876.00,0.0269
2875.00,0.0268
2874.00,0.0267
2873.00,0.0266
2872.00,0.0266
2871.00,0.0265
2870.00,0.0264
2869.00,0.0264
2868.00,0.0263
2867.00,0.0262
2866.00,0.0261
2865.00,0.0260
2864.00,0.0259
2863.00,0.0258
2862.00,0.0257
2861.00,0.0256
2860.00,0.0256
2859.00,0.0255
2858.00,0.0254
2857.00,0.0253
2856.00,0.0252
2855.00,0.0252
2854.00,0.0251
2853.00,0.0250
2852.00,0.0249
2851.00,0.0249
2850.00,0.0248
2849.00,0.0246
2848.00,0.0245
2847.00,0.0244
2846.00,0.0243
2845.00,0.0242
2844.00,0.0242
2843.00,0.0241
2842.00,0.0241
2841.00,0.0240
2840.00,0.0239
2839.00,0.0238
2838.00,0.0237
2837.00,0.0237
2836.00,0.0236
2835.00,0.0235
2834.00,0.0235
2833.00,0.0235
2832.00,0.0234
2831.00,0.0234
2830.00,0.0234
2829.00,0.0233
2828.00,0.0232
2827.00,0.0231
2826.00,0.0231
2825.00,0.0230
2824.00,0.0229
2823.00,0.0229
2822.00,0.0228
2821.00,0.0228
2820.00,0.0227
2819.00,0.0227
2818.00,0.0226
2817.00,0.0226
2816.00,0.0226
2815.00,0.0226
2814.00,0.0225
2813.00,0.0225
2812.00,0.0224
2811.00,0.0224
2810.00,0.0224
2809.00,0.0223
2808.00,0.0223
2807.00,0.0222
2806.00,0.0222
2805.00,0.0222
2804.00,0.0222
2803.00,0.0221
2802.00,0.0221
2801.00,0.0221
2800.00,0.0221
2799.00,0.0220
2798.00,0.0220
2797.00,0.0220
2796.00,0.0219
2795.00,0.0219
2794.00,0.0219
2793.00,0.0218
2792.00,0.0218
2791.00,0.0218
2790.00,0.0218
2789.00,0.0218
2788.00,0.0218
2787.00,0.0218
2786.00,0.0218
2785.00,0.0218
2784.00,0.0218
2783.00,0.0217
2782.00,0.0217
2781.00,0.0216
2780.00,0.0216
2779.00,0.0215
2778.00,0.0215
2777.00,0.0215
2776.00,0.0215
2775.00,0.0215
2774.00,0.0214
2773.00,0.0213
2772.00,0.0213
2771.00,0.0213
2770.00,0.0213
2769.00,0.0213
2768.00,0.0213
2767.00,0.0212
2766.00,0.0212
2765.00,0.0212
2764.00,0.0212
2763.00,0.0211
2762.00,0.0211
2761.00,0.0210
2760.00,0.0210
2759.00,0.0210
2758.00,0.0210
2757.00,0.0210
2756.00,0.0210
2755.00,0.0210
2754.00,0.0210
2753.00,0.0209
2752.00,0.0209
2751.00,0.0209
2750.00,0.0209
2749.00,0.0209
2748.00,0.0209
2747.00,0.0209
2746.00,0.0208
2745.00,0.0208
2744.00,0.0208
2743.00,0.0208
2742.00,0.0207
2741.00,0.0207
2740.00,0.0207
2739.00,0.0207
2738.00,0.0207
2737.00,0.0207
2736.00,0.0207
2735.00,0.0207
2734.00,0.0207
2733.00,0.0207
2732.00,0.0207
2731.00,0.0207
2730.00,0.0207
2729.00,0.0206
2728.00,0.0206
2727.00,0.0206
2726.00,0.0206
2725.00,0.0206
2724.00,0.0206
2723.00,0.0206
2722.00,0.0206
2721.00,0.0205
2720.00,0.0205
2719.00,0.0205
2718.00,0.0205
2717.00,0.0206
2716.00,0.0205
2715.00,0.0205
2714.00,0.0205
2713.00,0.0205
2712.00,0.0205
2711.00,0.0205
2710.00,0.0205
2709.00,0.0204
2708.00,0.0204
2707.00,0.0203
2706.00,0.0203
2705.00,0.0203
2704.00,0.0203
2703.00,0.0203
2702.00,0.0202
2701.00,0.0202
2700.00,0.0202
2699.00,0.0202
2698.00,0.0202
2697.00,0.0203
2696.00,0.0202
2695.00,0.0202
2694.00,0.0202
2693.00,0.0202
2692.00,0.0202
2691.00,0.0202
2690.00,0.0202
2689.00,0.0203
2688.00,0.0203
2687.00,0.0202
2686.00,0.0202
2685.00,0.0201
2684.00,0.0201
2683.00,0.0201
2682.00,0.0200
2681.00,0.0201
2680.00,0.0201
2679.00,0.0201
2678.00,0.0201
2677.00,0.0200
2676.00,0.0200
2675.00,0.0199
2674.00,0.0199
