Created as New Dataset,Sample 006 By Administrator Date Monday, June 09 2025
cm-1,A
4000.00,0.0033
3999.00,0.0033
3998.00,0.0033
3997.00,0.0033
3996.00,0.0033
3995.00,0.0033
3994.00,0.0033
3993.00,0.0033
3992.00,0.0033
3991.00,0.0033
3990.00,0.0033
3989.00,0.0033
3988.00,0.0034
3987.00,0.0034
3986.00,0.0034
3985.00,0.0034
3984.00,0.0034
3983.00,0.0034
3982.00,0.0034
3981.00,0.0034
3980.00,0.0034
3979.00,0.0034
3978.00,0.0035
3977.00,0.0035
3976.00,0.0035
3975.00,0.0035
3974.00,0.0035
3973.00,0.0035
3972.00,0.0034
3971.00,0.0034
3970.00,0.0034
3969.00,0.0034
3968.00,0.0034
3967.00,0.0034
3966.00,0.0034
3965.00,0.0035
3964.00,0.0035
3963.00,0.0035
3962.00,0.0035
3961.00,0.0036
3960.00,0.0036
3959.00,0.0036
3958.00,0.0036
3957.00,0.0036
3956.00,0.0036
3955.00,0.0036
3954.00,0.0036
3953.00,0.0036
3952.00,0.0036
3951.00,0.0037
3950.00,0.0037
3949.00,0.0037
3948.00,0.0038
3947.00,0.0038
3946.00,0.0038
3945.00,0.0038
3944.00,0.0038
3943.00,0.0037
3942.00,0.0036
3941.00,0.0035
3940.00,0.0035
3939.00,0.0035
3938.00,0.0036
3937.00,0.0036
3936.00,0.0037
3935.00,0.0038
3934.00,0.0039
3933.00,0.0039
3932.00,0.0039
3931.00,0.0038
3930.00,0.0038
3929.00,0.0037
3928.00,0.0037
3927.00,0.0038
3926.00,0.0037
3925.00,0.0037
3924.00,0.0036
3923.00,0.0037
3922.00,0.0038
3921.00,0.0040
3920.00,0.0041
3919.00,0.0041
3918.00,0.0040
3917.00,0.0040
3916.00,0.0039
3915.00,0.0038
3914.00,0.0037
3913.00,0.0036
3912.00,0.0035
3911.00,0.0034
3910.00,0.0034
3909.00,0.0034
3908.00,0.0036
3907.00,0.0037
3906.00,0.0039
3905.00,0.0041
3904.00,0.0044
3903.00,0.0046
3902.00,0.0048
3901.00,0.0049
3900.00,0.0048
3899.00,0.0046
3898.00,0.0044
3897.00,0.0042
3896.00,0.0041
3895.00,0.0041
3894.00,0.0041
3893.00,0.0040
3892.00,0.0039
3891.00,0.0039
3890.00,0.0039
3889.00,0.0040
3888.00,0.0042
3887.00,0.0044
3886.00,0.0044
3885.00,0.0043
3884.00,0.0043
3883.00,0.0043
3882.00,0.0043
3881.00,0.0043
3880.00,0.0041
3879.00,0.0040
3878.00,0.0040
3877.00,0.0041
3876.00,0.0041
3875.00,0.0042
3874.00,0.0041
3873.00,0.0041
3872.00,0.0042
3871.00,0.0044
3870.00,0.0045
3869.00,0.0044
3868.00,0.0044
3867.00,0.0044
3866.00,0.0046
3865.00,0.0046
3864.00,0.0044
3863.00,0.0043
3862.00,0.0042
3861.00,0.0042
3860.00,0.0042
3859.00,0.0041
3858.00,0.0039
3857.00,0.0038
3856.00,0.0038
3855.00,0.0040
3854.00,0.0042
3853.00,0.0044
3852.00,0.0045
3851.00,0.0045
3850.00,0.0045
3849.00,0.0045
3848.00,0.0044
3847.00,0.0043
3846.00,0.0042
3845.00,0.0042
3844.00,0.0042
3843.00,0.0042
3842.00,0.0043
3841.00,0.0044
3840.00,0.0045
3839.00,0.0045
3838.00,0.0045
3837.00,0.0046
3836.00,0.0046
3835.00,0.0046
3834.00,0.0046
3833.00,0.0045
3832.00,0.0045
3831.00,0.0044
3830.00,0.0043
3829.00,0.0043
3828.00,0.0042
3827.00,0.0041
3826.00,0.0040
3825.00,0.0039
3824.00,0.0040
3823.00,0.0043
3822.00,0.0045
3821.00,0.0045
3820.00,0.0045
3819.00,0.0045
3818.00,0.0046
3817.00,0.0047
3816.00,0.0046
3815.00,0.0044
3814.00,0.0042
3813.00,0.0041
3812.00,0.0040
3811.00,0.0039
3810.00,0.0038
3809.00,0.0038
3808.00,0.0039
3807.00,0.0040
3806.00,0.0040
3805.00,0.0042
3804.00,0.0044
3803.00,0.0045
3802.00,0.0046
3801.00,0.0046
3800.00,0.0045
3799.00,0.0046
3798.00,0.0046
3797.00,0.0045
3796.00,0.0043
3795.00,0.0041
3794.00,0.0040
3793.00,0.0040
3792.00,0.0039
3791.00,0.0038
3790.00,0.0038
3789.00,0.0037
3788.00,0.0038
3787.00,0.0038
3786.00,0.0038
3785.00,0.0038
3784.00,0.0039
3783.00,0.0040
3782.00,0.0041
3781.00,0.0042
3780.00,0.0041
3779.00,0.0040
3778.00,0.0039
3777.00,0.0039
3776.00,0.0040
3775.00,0.0040
3774.00,0.0040
3773.00,0.0040
3772.00,0.0041
3771.00,0.0042
3770.00,0.0043
3769.00,0.0044
3768.00,0.0045
3767.00,0.0046
3766.00,0.0047
3765.00,0.0046
3764.00,0.0046
3763.00,0.0047
3762.00,0.0048
3761.00,0.0049
3760.00,0.0049
3759.00,0.0049
3758.00,0.0049
3757.00,0.0050
3756.00,0.0051
3755.00,0.0052
3754.00,0.0054
3753.00,0.0055
3752.00,0.0057
3751.00,0.0058
3750.00,0.0061
3749.00,0.0063
3748.00,0.0064
3747.00,0.0065
3746.00,0.0066
3745.00,0.0067
3744.00,0.0066
3743.00,0.0065
3742.00,0.0063
3741.00,0.0063
3740.00,0.0063
3739.00,0.0064
3738.00,0.0066
3737.00,0.0069
3736.00,0.0069
3735.00,0.0067
3734.00,0.0066
3733.00,0.0065
3732.00,0.0065
3731.00,0.0064
3730.00,0.0063
3729.00,0.0063
3728.00,0.0063
3727.00,0.0063
3726.00,0.0063
3725.00,0.0062
3724.00,0.0062
3723.00,0.0062
3722.00,0.0062
3721.00,0.0062
3720.00,0.0062
3719.00,0.0061
3718.00,0.0061
3717.00,0.0061
3716.00,0.0062
3715.00,0.0063
3714.00,0.0066
3713.00,0.0068
3712.00,0.0070
3711.00,0.0071
3710.00,0.0072
3709.00,0.0073
3708.00,0.0074
3707.00,0.0074
3706.00,0.0074
3705.00,0.0075
3704.00,0.0075
3703.00,0.0076
3702.00,0.0076
3701.00,0.0076
3700.00,0.0077
3699.00,0.0078
3698.00,0.0079
3697.00,0.0081
3696.00,0.0082
3695.00,0.0084
3694.00,0.0087
3693.00,0.0089
3692.00,0.0091
3691.00,0.0093
3690.00,0.0095
3689.00,0.0099
3688.00,0.0103
3687.00,0.0106
3686.00,0.0109
3685.00,0.0110
3684.00,0.0112
3683.00,0.0113
3682.00,0.0115
3681.00,0.0117
3680.00,0.0119
3679.00,0.0122
3678.00,0.0127
3677.00,0.0133
3676.00,0.0140
3675.00,0.0146
3674.00,0.0151
3673.00,0.0157
3672.00,0.0163
3671.00,0.0167
3670.00,0.0170
3669.00,0.0172
3668.00,0.0174
3667.00,0.0177
3666.00,0.0181
3665.00,0.0183
3664.00,0.0186
3663.00,0.0189
3662.00,0.0193
3661.00,0.0197
3660.00,0.0201
3659.00,0.0207
3658.00,0.0214
3657.00,0.0222
3656.00,0.0230
3655.00,0.0237
3654.00,0.0243
3653.00,0.0250
3652.00,0.0258
3651.00,0.0267
3650.00,0.0277
3649.00,0.0287
3648.00,0.0297
3647.00,0.0306
3646.00,0.0312
3645.00,0.0317
3644.00,0.0321
3643.00,0.0325
3642.00,0.0328
3641.00,0.0333
3640.00,0.0338
3639.00,0.0345
3638.00,0.0352
3637.00,0.0359
3636.00,0.0366
3635.00,0.0374
3634.00,0.0382
3633.00,0.0388
3632.00,0.0396
3631.00,0.0405
3630.00,0.0416
3629.00,0.0428
3628.00,0.0440
3627.00,0.0451
3626.00,0.0459
3625.00,0.0466
3624.00,0.0471
3623.00,0.0476
3622.00,0.0481
3621.00,0.0488
3620.00,0.0495
3619.00,0.0504
3618.00,0.0514
3617.00,0.0525
3616.00,0.0534
3615.00,0.0542
3614.00,0.0549
3613.00,0.0556
3612.00,0.0564
3611.00,0.0572
3610.00,0.0581
3609.00,0.0590
3608.00,0.0597
3607.00,0.0604
3606.00,0.0611
3605.00,0.0617
3604.00,0.0624
3603.00,0.0630
3602.00,0.0636
3601.00,0.0643
3600.00,0.0651
3599.00,0.0659
3598.00,0.0668
3597.00,0.0677
3596.00,0.0686
3595.00,0.0695
3594.00,0.0703
3593.00,0.0711
3592.00,0.0719
3591.00,0.0726
3590.00,0.0735
3589.00,0.0745
3588.00,0.0755
3587.00,0.0765
3586.00,0.0775
3585.00,0.0785
3584.00,0.0793
3583.00,0.0800
3582.00,0.0806
3581.00,0.0811
3580.00,0.0818
3579.00,0.0824
3578.00,0.0832
3577.00,0.0841
3576.00,0.0850
3575.00,0.0859
3574.00,0.0868
3573.00,0.0877
3572.00,0.0887
3571.00,0.0896
3570.00,0.0906
3569.00,0.0917
3568.00,0.0929
3567.00,0.0940
3566.00,0.0952
3565.00,0.0964
3564.00,0.0975
3563.00,0.0984
3562.00,0.0993
3561.00,0.1000
3560.00,0.1008
3559.00,0.1016
3558.00,0.1025
3557.00,0.1034
3556.00,0.1043
3555.00,0.1052
3554.00,0.1062
3553.00,0.1072
3552.00,0.1083
3551.00,0.1094
3550.00,0.1105
3549.00,0.1116
3548.00,0.1126
3547.00,0.1136
3546.00,0.1146
3545.00,0.1156
3544.00,0.1165
3543.00,0.1174
3542.00,0.1182
3541.00,0.1190
3540.00,0.1197
3539.00,0.1205
3538.00,0.1212
3537.00,0.1220
3536.00,0.1228
3535.00,0.1236
3534.00,0.1244
3533.00,0.1252
3532.00,0.1259
3531.00,0.1266
3530.00,0.1274
3529.00,0.1281
3528.00,0.1290
3527.00,0.1299
3526.00,0.1308
3525.00,0.1317
3524.00,0.1324
3523.00,0.1331
3522.00,0.1337
3521.00,0.1343
3520.00,0.1349
3519.00,0.1355
3518.00,0.1362
3517.00,0.1369
3516.00,0.1376
3515.00,0.1383
3514.00,0.1391
3513.00,0.1398
3512.00,0.1404
3511.00,0.1411
3510.00,0.1418
3509.00,0.1426
3508.00,0.1435
3507.00,0.1443
3506.00,0.1451
3505.00,0.1459
3504.00,0.1467
3503.00,0.1475
3502.00,0.1483
3501.00,0.1491
3500.00,0.1498
3499.00,0.1506
3498.00,0.1513
3497.00,0.1520
3496.00,0.1527
3495.00,0.1535
3494.00,0.1543
3493.00,0.1550
3492.00,0.1558
3491.00,0.1565
3490.00,0.1573
3489.00,0.1581
3488.00,0.1589
3487.00,0.1597
3486.00,0.1604
3485.00,0.1612
3484.00,0.1620
3483.00,0.1628
3482.00,0.1636
3481.00,0.1644
3480.00,0.1653
3479.00,0.1660
3478.00,0.1667
3477.00,0.1674
3476.00,0.1680
3475.00,0.1688
3474.00,0.1696
3473.00,0.1704
3472.00,0.1713
3471.00,0.1722
3470.00,0.1730
3469.00,0.1738
3468.00,0.1746
3467.00,0.1754
3466.00,0.1761
3465.00,0.1768
3464.00,0.1775
3463.00,0.1782
3462.00,0.1789
3461.00,0.1797
3460.00,0.1805
3459.00,0.1814
3458.00,0.1822
3457.00,0.1829
3456.00,0.1837
3455.00,0.1844
3454.00,0.1851
3453.00,0.1859
3452.00,0.1866
3451.00,0.1873
3450.00,0.1880
3449.00,0.1888
3448.00,0.1896
3447.00,0.1904
3446.00,0.1912
3445.00,0.1920
3444.00,0.1928
3443.00,0.1936
3442.00,0.1944
3441.00,0.1952
3440.00,0.1961
3439.00,0.1969
3438.00,0.1978
3437.00,0.1986
3436.00,0.1993
3435.00,0.2001
3434.00,0.2007
3433.00,0.2015
3432.00,0.2022
3431.00,0.2030
3430.00,0.2039
3429.00,0.2047
3428.00,0.2055
3427.00,0.2062
3426.00,0.2070
3425.00,0.2078
3424.00,0.2085
3423.00,0.2093
3422.00,0.2101
3421.00,0.2109
3420.00,0.2118
3419.00,0.2126
3418.00,0.2134
3417.00,0.2142
3416.00,0.2150
3415.00,0.2159
3414.00,0.2167
3413.00,0.2175
3412.00,0.2182
3411.00,0.2189
3410.00,0.2196
3409.00,0.2202
3408.00,0.2209
3407.00,0.2215
3406.00,0.2222
3405.00,0.2229
3404.00,0.2235
3403.00,0.2242
3402.00,0.2247
3401.00,0.2252
3400.00,0.2256
3399.00,0.2259
3398.00,0.2262
3397.00,0.2266
3396.00,0.2270
3395.00,0.2274
3394.00,0.2279
3393.00,0.2282
3392.00,0.2285
3391.00,0.2288
3390.00,0.2289
3389.00,0.2290
3388.00,0.2291
3387.00,0.2292
3386.00,0.2294
3385.00,0.2296
3384.00,0.2298
3383.00,0.2300
3382.00,0.2302
3381.00,0.2304
3380.00,0.2305
3379.00,0.2307
3378.00,0.2308
3377.00,0.2309
3376.00,0.2310
3375.00,0.2310
3374.00,0.2311
3373.00,0.2312
3372.00,0.2314
3371.00,0.2316
3370.00,0.2317
3369.00,0.2318
3368.00,0.2318
3367.00,0.2318
3366.00,0.2317
3365.00,0.2317
3364.00,0.2317
3363.00,0.2317
3362.00,0.2318
3361.00,0.2318
3360.00,0.2318
3359.00,0.2318
3358.00,0.2318
3357.00,0.2317
3356.00,0.2317
3355.00,0.2317
3354.00,0.2317
3353.00,0.2318
3352.00,0.2318
3351.00,0.2317
3350.00,0.2317
3349.00,0.2315
3348.00,0.2314
3347.00,0.2313
3346.00,0.2313
3345.00,0.2312
3344.00,0.2312
3343.00,0.2312
3342.00,0.2311
3341.00,0.2311
3340.00,0.2309
3339.00,0.2308
3338.00,0.2307
3337.00,0.2305
3336.00,0.2304
3335.00,0.2303
3334.00,0.2302
3333.00,0.2301
3332.00,0.2299
3331.00,0.2297
3330.00,0.2295
3329.00,0.2294
3328.00,0.2293
3327.00,0.2292
3326.00,0.2291
3325.00,0.2290
3324.00,0.2289
3323.00,0.2288
3322.00,0.2287
3321.00,0.2286
3320.00,0.2284
3319.00,0.2283
3318.00,0.2281
3317.00,0.2280
3316.00,0.2278
3315.00,0.2277
3314.00,0.2276
3313.00,0.2276
3312.00,0.2275
3311.00,0.2274
3310.00,0.2273
3309.00,0.2272
3308.00,0.2270
3307.00,0.2269
3306.00,0.2268
3305.00,0.2268
3304.00,0.2267
3303.00,0.2266
3302.00,0.2265
3301.00,0.2264
3300.00,0.2263
3299.00,0.2261
3298.00,0.2260
3297.00,0.2259
3296.00,0.2257
3295.00,0.2256
3294.00,0.2255
3293.00,0.2254
3292.00,0.2253
3291.00,0.2252
3290.00,0.2251
3289.00,0.2250
3288.00,0.2249
3287.00,0.2247
3286.00,0.2246
3285.00,0.2245
3284.00,0.2243
3283.00,0.2241
3282.00,0.2238
3281.00,0.2236
3280.00,0.2234
3279.00,0.2232
3278.00,0.2229
3277.00,0.2227
3276.00,0.2225
3275.00,0.2222
3274.00,0.2219
3273.00,0.2216
3272.00,0.2213
3271.00,0.2210
3270.00,0.2207
3269.00,0.2204
3268.00,0.2200
3267.00,0.2197
3266.00,0.2193
3265.00,0.2189
3264.00,0.2185
3263.00,0.2181
3262.00,0.2176
3261.00,0.2172
3260.00,0.2167
3259.00,0.2162
3258.00,0.2157
3257.00,0.2153
3256.00,0.2148
3255.00,0.2143
3254.00,0.2139
3253.00,0.2134
3252.00,0.2130
3251.00,0.2125
3250.00,0.2120
3249.00,0.2115
3248.00,0.2110
3247.00,0.2105
3246.00,0.2099
3245.00,0.2094
3244.00,0.2089
3243.00,0.2084
3242.00,0.2078
3241.00,0.2073
3240.00,0.2068
3239.00,0.2062
3238.00,0.2056
3237.00,0.2049
3236.00,0.2043
3235.00,0.2037
3234.00,0.2032
3233.00,0.2026
3232.00,0.2020
3231.00,0.2014
3230.00,0.2008
3229.00,0.2001
3228.00,0.1995
3227.00,0.1989
3226.00,0.1983
3225.00,0.1977
3224.00,0.1971
3223.00,0.1964
3222.00,0.1958
3221.00,0.1952
3220.00,0.1945
3219.00,0.1938
3218.00,0.1931
3217.00,0.1925
3216.00,0.1918
3215.00,0.1911
3214.00,0.1904
3213.00,0.1897
3212.00,0.1890
3211.00,0.1883
3210.00,0.1876
3209.00,0.1869
3208.00,0.1861
3207.00,0.1854
3206.00,0.1846
3205.00,0.1839
3204.00,0.1831
3203.00,0.1824
3202.00,0.1816
3201.00,0.1808
3200.00,0.1800
3199.00,0.1792
3198.00,0.1785
3197.00,0.1778
3196.00,0.1770
3195.00,0.1762
3194.00,0.1754
3193.00,0.1746
3192.00,0.1738
3191.00,0.1730
3190.00,0.1721
3189.00,0.1712
3188.00,0.1704
3187.00,0.1695
3186.00,0.1687
3185.00,0.1679
3184.00,0.1670
3183.00,0.1662
3182.00,0.1653
3181.00,0.1645
3180.00,0.1636
3179.00,0.1627
3178.00,0.1619
3177.00,0.1610
3176.00,0.1601
3175.00,0.1592
3174.00,0.1582
3173.00,0.1573
3172.00,0.1564
3171.00,0.1556
3170.00,0.1548
3169.00,0.1539
3168.00,0.1530
3167.00,0.1521
3166.00,0.1512
3165.00,0.1503
3164.00,0.1493
3163.00,0.1484
3162.00,0.1475
3161.00,0.1466
3160.00,0.1458
3159.00,0.1449
3158.00,0.1441
3157.00,0.1432
3156.00,0.1424
3155.00,0.1415
3154.00,0.1407
3153.00,0.1399
3152.00,0.1390
3151.00,0.1381
3150.00,0.1373
3149.00,0.1364
3148.00,0.1355
3147.00,0.1347
3146.00,0.1339
3145.00,0.1331
3144.00,0.1322
3143.00,0.1314
3142.00,0.1305
3141.00,0.1297
3140.00,0.1289
3139.00,0.1281
3138.00,0.1274
3137.00,0.1266
3136.00,0.1258
3135.00,0.1250
3134.00,0.1242
3133.00,0.1235
3132.00,0.1228
3131.00,0.1220
3130.00,0.1213
3129.00,0.1206
3128.00,0.1198
3127.00,0.1191
3126.00,0.1184
3125.00,0.1177
3124.00,0.1170
3123.00,0.1163
3122.00,0.1155
3121.00,0.1148
3120.00,0.1142
3119.00,0.1135
3118.00,0.1129
3117.00,0.1122
3116.00,0.1116
3115.00,0.1109
3114.00,0.1103
3113.00,0.1098
3112.00,0.1092
3111.00,0.1086
3110.00,0.1080
3109.00,0.1074
3108.00,0.1068
3107.00,0.1062
3106.00,0.1057
3105.00,0.1052
3104.00,0.1047
3103.00,0.1041
3102.00,0.1036
3101.00,0.1030
3100.00,0.1025
3099.00,0.1020
3098.00,0.1016
3097.00,0.1011
3096.00,0.1006
3095.00,0.1001
3094.00,0.0996
3093.00,0.0990
3092.00,0.0984
3091.00,0.0979
3090.00,0.0974
3089.00,0.0969
3088.00,0.0964
3087.00,0.0959
3086.00,0.0955
3085.00,0.0950
3084.00,0.0946
3083.00,0.0941
3082.00,0.0937
3081.00,0.0933
3080.00,0.0928
3079.00,0.0924
3078.00,0.0920
3077.00,0.0916
3076.00,0.0912
3075.00,0.0907
3074.00,0.0902
3073.00,0.0897
3072.00,0.0892
3071.00,0.0887
3070.00,0.0883
3069.00,0.0878
3068.00,0.0873
3067.00,0.0868
3066.00,0.0864
3065.00,0.0860
3064.00,0.0855
3063.00,0.0850
3062.00,0.0845
3061.00,0.0839
3060.00,0.0834
3059.00,0.0828
3058.00,0.0823
3057.00,0.0818
3056.00,0.0812
3055.00,0.0807
3054.00,0.0801
3053.00,0.0796
3052.00,0.0791
3051.00,0.0786
3050.00,0.0781
3049.00,0.0776
3048.00,0.0771
3047.00,0.0765
3046.00,0.0760
3045.00,0.0754
3044.00,0.0749
3043.00,0.0744
3042.00,0.0739
3041.00,0.0734
3040.00,0.0729
3039.00,0.0724
3038.00,0.0719
3037.00,0.0714
3036.00,0.0709
3035.00,0.0704
3034.00,0.0700
3033.00,0.0695
3032.00,0.0691
3031.00,0.0687
3030.00,0.0682
3029.00,0.0678
3028.00,0.0673
3027.00,0.0669
3026.00,0.0664
3025.00,0.0659
3024.00,0.0655
3023.00,0.0650
3022.00,0.0646
3021.00,0.0642
3020.00,0.0638
3019.00,0.0634
3018.00,0.0631
3017.00,0.0627
3016.00,0.0624
3015.00,0.0620
3014.00,0.0616
3013.00,0.0613
3012.00,0.0609
3011.00,0.0606
3010.00,0.0604
3009.00,0.0601
3008.00,0.0598
3007.00,0.0595
3006.00,0.0592
3005.00,0.0588
3004.00,0.0585
3003.00,0.0583
3002.00,0.0580
3001.00,0.0577
3000.00,0.0574
2999.00,0.0572
2998.00,0.0570
2997.00,0.0568
2996.00,0.0566
2995.00,0.0564
2994.00,0.0563
2993.00,0.0562
2992.00,0.0562
2991.00,0.0561
2990.00,0.0561
2989.00,0.0560
2988.00,0.0561
2987.00,0.0561
2986.00,0.0561
2985.00,0.0562
2984.00,0.0562
2983.00,0.0562
2982.00,0.0563
2981.00,0.0564
2980.00,0.0565
2979.00,0.0566
2978.00,0.0567
2977.00,0.0569
2976.00,0.0570
2975.00,0.0571
2974.00,0.0573
2973.00,0.0575
2972.00,0.0576
2971.00,0.0578
2970.00,0.0579
2969.00,0.0580
2968.00,0.0581
2967.00,0.0582
2966.00,0.0583
2965.00,0.0584
2964.00,0.0585
2963.00,0.0585
2962.00,0.0585
2961.00,0.0585
2960.00,0.0584
2959.00,0.0582
2958.00,0.0581
2957.00,0.0579
2956.00,0.0577
2955.00,0.0574
2954.00,0.0571
2953.00,0.0568
2952.00,0.0565
2951.00,0.0563
2950.00,0.0561
2949.00,0.0559
2948.00,0.0557
2947.00,0.0556
2946.00,0.0555
2945.00,0.0555
2944.00,0.0555
2943.00,0.0557
2942.00,0.0558
2941.00,0.0559
2940.00,0.0561
2939.00,0.0562
2938.00,0.0563
2937.00,0.0564
2936.00,0.0564
2935.00,0.0565
2934.00,0.0565
2933.00,0.0566
2932.00,0.0566
2931.00,0.0566
2930.00,0.0565
2929.00,0.0565
2928.00,0.0565
2927.00,0.0564
2926.00,0.0563
2925.00,0.0561
2924.00,0.0559
2923.00,0.0557
2922.00,0.0554
2921.00,0.0550
2920.00,0.0545
2919.00,0.0541
2918.00,0.0535
2917.00,0.0530
2916.00,0.0523
2915.00,0.0516
2914.00,0.0510
2913.00,0.0503
2912.00,0.0497
2911.00,0.0492
2910.00,0.0486
2909.00,0.0481
2908.00,0.0476
2907.00,0.0472
2906.00,0.0468
2905.00,0.0464
2904.00,0.0460
2903.00,0.0456
2902.00,0.0452
2901.00,0.0449
2900.00,0.0445
2899.00,0.0441
2898.00,0.0438
2897.00,0.0434
2896.00,0.0431
2895.00,0.0428
2894.00,0.0425
2893.00,0.0422
2892.00,0.0420
2891.00,0.0417
2890.00,0.0414
2889.00,0.0412
2888.00,0.0409
2887.00,0.0407
2886.00,0.0405
2885.00,0.0403
2884.00,0.0402
2883.00,0.0400
2882.00,0.0399
2881.00,0.0398
2880.00,0.0397
2879.00,0.0396
2878.00,0.0395
2877.00,0.0393
2876.00,0.0391
2875.00,0.0389
2874.00,0.0387
2873.00,0.0384
2872.00,0.0382
2871.00,0.0380
2870.00,0.0377
2869.00,0.0374
2868.00,0.0370
2867.00,0.0366
2866.00,0.0363
2865.00,0.0360
2864.00,0.0358
2863.00,0.0356
2862.00,0.0354
2861.00,0.0353
2860.00,0.0352
2859.00,0.0352
2858.00,0.0351
2857.00,0.0351
2856.00,0.0351
2855.00,0.0350
2854.00,0.0349
2853.00,0.0348
2852.00,0.0346
2851.00,0.0344
2850.00,0.0340
2849.00,0.0335
2848.00,0.0330
2847.00,0.0324
2846.00,0.0318
2845.00,0.0312
2844.00,0.0307
2843.00,0.0301
2842.00,0.0297
2841.00,0.0292
2840.00,0.0289
2839.00,0.0285
2838.00,0.0282
2837.00,0.0280
2836.00,0.0278
2835.00,0.0275
2834.00,0.0273
2833.00,0.0271
2832.00,0.0269
2831.00,0.0267
2830.00,0.0265
2829.00,0.0264
2828.00,0.0262
2827.00,0.0261
2826.00,0.0259
2825.00,0.0258
2824.00,0.0256
2823.00,0.0254
2822.00,0.0253
2821.00,0.0251
2820.00,0.0250
2819.00,0.0248
2818.00,0.0247
2817.00,0.0245
2816.00,0.0244
2815.00,0.0242
2814.00,0.0241
2813.00,0.0239
2812.00,0.0238
2811.00,0.0236
2810.00,0.0235
2809.00,0.0233
2808.00,0.0232
2807.00,0.0231
2806.00,0.0229
2805.00,0.0228
2804.00,0.0226
2803.00,0.0225
2802.00,0.0224
2801.00,0.0222
2800.00,0.0221
2799.00,0.0219
2798.00,0.0218
2797.00,0.0217
2796.00,0.0216
2795.00,0.0215
2794.00,0.0214
2793.00,0.0212
2792.00,0.0211
2791.00,0.0210
2790.00,0.0209
2789.00,0.0208
2788.00,0.0208
2787.00,0.0207
2786.00,0.0206
2785.00,0.0205
2784.00,0.0203
2783.00,0.0202
2782.00,0.0202
2781.00,0.0201
2780.00,0.0200
2779.00,0.0198
2778.00,0.0197
2777.00,0.0196
2776.00,0.0195
2775.00,0.0194
2774.00,0.0193
2773.00,0.0192
2772.00,0.0191
2771.00,0.0190
2770.00,0.0189
2769.00,0.0189
2768.00,0.0188
2767.00,0.0187
2766.00,0.0187
2765.00,0.0186
2764.00,0.0185
2763.00,0.0184
2762.00,0.0183
2761.00,0.0182
2760.00,0.0181
2759.00,0.0180
2758.00,0.0179
2757.00,0.0178
2756.00,0.0178
2755.00,0.0177
2754.00,0.0176
2753.00,0.0176
2752.00,0.0175
2751.00,0.0174
2750.00,0.0174
2749.00,0.0173
2748.00,0.0172
2747.00,0.0172
2746.00,0.0171
2745.00,0.0170
2744.00,0.0169
2743.00,0.0168
2742.00,0.0167
2741.00,0.0167
2740.00,0.0166
2739.00,0.0165
2738.00,0.0164
2737.00,0.0164
2736.00,0.0163
2735.00,0.0163
2734.00,0.0162
2733.00,0.0162
2732.00,0.0161
2731.00,0.0160
2730.00,0.0159
2729.00,0.0158
2728.00,0.0158
2727.00,0.0157
2726.00,0.0156
2725.00,0.0156
2724.00,0.0155
2723.00,0.0154
2722.00,0.0153
2721.00,0.0152
2720.00,0.0152
2719.00,0.0151
2718.00,0.0151
2717.00,0.0150
2716.00,0.0150
2715.00,0.0149
2714.00,0.0148
2713.00,0.0148
2712.00,0.0147
2711.00,0.0146
2710.00,0.0145
2709.00,0.0145
2708.00,0.0144
2707.00,0.0144
2706.00,0.0143
2705.00,0.0143
2704.00,0.0143
2703.00,0.0142
2702.00,0.0142
2701.00,0.0141
2700.00,0.0140
2699.00,0.0140
2698.00,0.0139
2697.00,0.0139
2696.00,0.0138
2695.00,0.0138
2694.00,0.0137
2693.00,0.0137
2692.00,0.0136
2691.00,0.0136
2690.00,0.0135
2689.00,0.0135
2688.00,0.0134
2687.00,0.0134
2686.00,0.0133
2685.00,0.0133
2684.00,0.0133
2683.00,0.0132
2682.00,0.0132
2681.00,0.0131
2680.00,0.0131
2679.00,0.0130
2678.00,0.0130
2677.00,0.0129
2676.00,0.0129
2675.00,0.0128
2674.00,0.0128
